INPUT FILE: input
OUTPUT FILE:output
ATOM NUMBER:27
ATOM MASS:  1.000000 u
EPS:        1.000000 KJ/mol
R:          0.380000 nm
f:          10000.000000
L:          2.300000 nm
A:          0.380000 nm
T:          1000.000000 K
TAU:        0.000010 ps
S_0:        0
S_D:        10000
S_OUT:      10
S_XYZ:      10
AVERAGE MOMENTUM 0.000000 0.000000 0.000000
CALCULATED TEMPERATURE 1049.878345 
CALCULATED KIN ENERGY 353.341806 
CALCULATED POT ENERGY -207.529188 
CALCULATED TOTAL ENERGY 145.812618 
CALCULATED PRESSURE 1.916523 
KONIEC TERMALIZACJI
TIME [ps]	TEMP. [K]	E_KIN [kJ/mol]	E_POT [kJ/mol]	E_TOT [kJ/mol]	PRES. [kJ/mol/nm^3]
0.000000	-nan	-nan	-nan	-nan	-nan
0.000100	 1049.906942	 353.351431	-207.548438	145.802993	1.916544 
0.000200	 1049.904907	 353.350746	-207.547068	145.803678	1.916538 
0.000300	 1049.875819	 353.340956	-207.527489	145.813467	1.916507 
0.000400	 1049.819304	 353.321936	-207.489448	145.832488	1.916451 
0.000500	 1049.734962	 353.293550	-207.432677	145.860873	1.916369 
0.000600	 1049.622361	 353.255654	-207.356885	145.898769	1.916262 
0.000700	 1049.481045	 353.208093	-207.261763	145.946330	1.916128 
0.000800	 1049.310522	 353.150703	-207.146983	146.003720	1.915968 
0.000900	 1049.110275	 353.083308	-207.012195	146.071114	1.915780 
0.001000	 1048.879752	 353.005725	-206.857028	146.148697	1.915566 
0.001100	 1048.618374	 352.917757	-206.681093	146.236664	1.915323 
0.001200	 1048.325527	 352.819198	-206.483974	146.335223	1.915051 
0.001300	 1048.000565	 352.709830	-206.265239	146.444591	1.914751 
0.001400	 1047.642808	 352.589425	-206.024430	146.564995	1.914421 
0.001500	 1047.251543	 352.457743	-205.761066	146.696677	1.914060 
0.001600	 1046.826023	 352.314532	-205.474645	146.839887	1.913669 
0.001700	 1046.365466	 352.159529	-205.164639	146.994890	1.913246 
0.001800	 1045.869051	 351.992458	-204.830498	147.161960	1.912791 
0.001900	 1045.335924	 351.813032	-204.471646	147.341386	1.912303 
0.002000	 1044.765192	 351.620949	-204.087481	147.533468	1.911781 
0.002100	 1044.155923	 351.415897	-203.677377	147.738520	1.911224 
0.002200	 1043.507149	 351.197548	-203.240681	147.956868	1.910632 
0.002300	 1042.817859	 350.965565	-202.776714	148.188851	1.910003 
0.002400	 1042.087005	 350.719592	-202.284769	148.434823	1.909337 
0.002500	 1041.313496	 350.459263	-201.764112	148.695151	1.908633 
0.002600	 1040.496198	 350.184198	-201.213982	148.970216	1.907889 
0.002700	 1039.633939	 349.894000	-200.633588	149.260413	1.907105 
0.002800	 1038.725499	 349.588260	-200.022108	149.566152	1.906280 
0.002900	 1037.769618	 349.266554	-199.378696	149.887858	1.905412 
0.003000	 1036.764989	 348.928441	-198.702471	150.225970	1.904499 
0.003100	 1035.710262	 348.573467	-197.992524	150.580943	1.903542 
0.003200	 1034.604039	 348.201162	-197.247916	150.953247	1.902539 
0.003300	 1033.444879	 347.811041	-196.467674	151.343367	1.901487 
0.003400	 1032.231292	 347.402603	-195.650798	151.751805	1.900387 
0.003500	 1030.961743	 346.975330	-194.796253	152.179077	1.899236 
0.003600	 1029.634649	 346.528689	-193.902973	152.625716	1.898032 
0.003700	 1028.248380	 346.062134	-192.969863	153.092271	1.896775 
0.003800	 1026.801258	 345.575098	-191.995791	153.579306	1.895463 
0.003900	 1025.291559	 345.067001	-190.979599	154.087402	1.894094 
0.004000	 1023.717512	 344.537247	-189.920093	154.617154	1.892667 
0.004100	 1022.077298	 343.985225	-188.816050	155.169175	1.891179 
0.004200	 1020.369053	 343.410307	-187.666214	155.744093	1.889628 
0.004300	 1018.590868	 342.811849	-186.469301	156.342549	1.888014 
0.004400	 1016.740789	 342.189196	-185.223996	156.965201	1.886333 
0.004500	 1014.816820	 341.541675	-183.928954	157.612721	1.884585 
0.004600	 1012.816924	 340.868600	-182.582805	158.285795	1.882766 
0.004700	 1010.739022	 340.169272	-181.184150	158.985121	1.880875 
0.004800	 1008.581001	 339.442979	-179.731566	159.711413	1.878909 
0.004900	 1006.340712	 338.688998	-178.223606	160.465392	1.876866 
0.005000	 1004.015973	 337.906596	-176.658803	161.247793	1.874744 
0.005100	 1001.604577	 337.095029	-175.035669	162.059359	1.872541 
0.005200	 999.104291	 336.253545	-173.352703	162.900842	1.870254 
0.005300	 996.512861	 335.381386	-171.608387	163.772999	1.867880 
0.005400	 993.828023	 334.477790	-169.801197	164.676593	1.865417 
0.005500	 991.047499	 333.541991	-167.929600	165.612391	1.862862 
0.005600	 988.169014	 332.573223	-165.992065	166.581158	1.860213 
0.005700	 985.190295	 331.570720	-163.987060	167.583659	1.857466 
0.005800	 982.109082	 330.533722	-161.913066	168.620655	1.854620 
0.005900	 978.923138	 329.461477	-159.768577	169.692899	1.851671 
0.006000	 975.630258	 328.353242	-157.552109	170.801133	1.848616 
0.006100	 972.228279	 327.208288	-155.262204	171.946084	1.845452 
0.006200	 968.715092	 326.025908	-152.897444	173.128464	1.842177 
0.006300	 965.088655	 324.805412	-150.456454	174.348958	1.838788 
0.006400	 961.347006	 323.546142	-147.937915	175.608227	1.835281 
0.006500	 957.488282	 322.247469	-145.340570	176.906898	1.831653 
0.006600	 953.510729	 320.908804	-142.663241	178.245562	1.827902 
0.006700	 949.412725	 319.529600	-139.904835	179.624765	1.824025 
0.006800	 945.192795	 318.109361	-137.064359	181.045002	1.820018 
0.006900	 940.849633	 316.647648	-134.140934	182.506714	1.815879 
0.007000	 936.382124	 315.144086	-131.133810	184.010275	1.811605 
0.007100	 931.789364	 313.598370	-128.042379	185.555990	1.807193 
0.007200	 927.070688	 312.010275	-124.866191	187.144084	1.802641 
0.007300	 922.225688	 310.379666	-121.604974	188.774692	1.797945 
0.007400	 917.254247	 308.706503	-118.258649	190.447855	1.793105 
0.007500	 912.156562	 306.990852	-114.827346	192.163505	1.788116 
0.007600	 906.933170	 305.232893	-111.311430	193.921464	1.782978 
0.007700	 901.584983	 303.432934	-107.711512	195.721423	1.777689 
0.007800	 896.113310	 301.591415	-104.028474	197.562941	1.772247 
0.007900	 890.519891	 299.708922	-100.263487	199.445435	1.766651 
0.008000	 884.806924	 297.786194	-96.418032	201.368163	1.760899 
0.008100	 878.977098	 295.824137	-92.493917	203.330221	1.754993 
0.008200	 873.033614	 293.823828	-88.493297	205.330530	1.748931 
0.008300	 866.980221	 291.786528	-84.418697	207.367831	1.742714 
0.008400	 860.821235	 289.713691	-80.273020	209.440670	1.736343 
0.008500	 854.561566	 287.606968	-76.059573	211.547395	1.729819 
0.008600	 848.206738	 285.468219	-71.782073	213.686146	1.723146 
0.008700	 841.762907	 283.299515	-67.444664	215.854851	1.716325 
0.008800	 835.236877	 281.103147	-63.051925	218.051222	1.709361 
0.008900	 828.636105	 278.881624	-58.608877	220.272748	1.702257 
0.009000	 821.968712	 276.637680	-54.120985	222.516695	1.695020 
0.009100	 815.243478	 274.374269	-49.594159	224.780110	1.687655 
0.009200	 808.469836	 272.094566	-45.034749	227.059816	1.680171 
0.009300	 801.657860	 269.801961	-40.449536	229.352425	1.672574 
0.009400	 794.818241	 267.500053	-35.845716	231.654337	1.664876 
0.009500	 787.962262	 265.192639	-31.230883	233.961756	1.657086 
0.009600	 781.101757	 262.883702	-26.613005	236.270697	1.649216 
0.009700	 774.249071	 260.577396	-22.000388	238.577008	1.641279 
0.009800	 767.417001	 258.278029	-17.401648	240.876381	1.633291 
0.009900	 760.618739	 255.990040	-12.825665	243.164375	1.625268 
0.010000	 753.867798	 253.717977	-8.281534	245.436443	1.617229 
0.010100	 747.177939	 251.466471	-3.778517	247.687955	1.609196 
0.010200	 740.563081	 249.240208	0.674016	249.914224	1.601195 
0.010300	 734.037212	 247.043894	5.066649	252.110543	1.593257 
0.010400	 727.614294	 244.882229	9.389985	254.272214	1.585422 
0.010500	 721.308160	 242.759868	13.634713	256.394580	1.577743 
0.010600	 715.132409	 240.681388	17.791678	258.473066	1.570288 
0.010700	 709.100304	 238.651253	21.851953	260.503206	1.563149 
0.010800	 703.224663	 236.673777	25.806911	262.480687	1.556438 
0.010900	 697.517759	 234.753090	29.648290	264.401379	1.550268 
0.011000	 691.991218	 232.893104	33.368265	266.261369	1.544710 
0.011100	 686.655922	 231.097484	36.959509	268.056993	1.539764 
0.011200	 681.521929	 229.369613	40.415255	269.784868	1.535366 
0.011300	 676.598384	 227.712569	43.729346	271.441915	1.531431 
0.011400	 671.893456	 226.129102	46.896283	273.025385	1.527880 
0.011500	 667.414280	 224.621613	49.911264	274.532877	1.524657 
0.011600	 663.166905	 223.192138	52.770216	275.962354	1.521721 
0.011700	 659.156269	 221.842338	55.469817	277.312155	1.519045 
0.011800	 655.386175	 220.573494	58.007506	278.581000	1.516611 
0.011900	 651.859283	 219.386501	60.381492	279.767993	1.514406 
0.012000	 648.577126	 218.281875	62.590745	280.872620	1.512418 
0.012100	 645.540122	 217.259756	64.634983	281.894739	1.510639 
0.012200	 642.747613	 216.319923	66.514648	282.834571	1.509059 
0.012300	 640.197908	 215.461807	68.230878	283.692685	1.507670 
0.012400	 637.888341	 214.684511	69.785470	284.469980	1.506464 
0.012500	 635.815333	 213.986829	71.180830	285.167659	1.505429 
0.012600	 633.974467	 213.367277	72.419933	285.787210	1.504558 
0.012700	 632.360566	 212.824110	73.506264	286.330374	1.503839 
0.012800	 630.967775	 212.355359	74.443763	286.799122	1.503262 
0.012900	 629.789650	 211.958856	75.236767	287.195623	1.502818 
0.013000	 628.819244	 211.632261	75.889954	287.522215	1.502496 
0.013100	 628.049196	 211.373097	76.408278	287.781375	1.502287 
0.013200	 627.471814	 211.178776	76.796916	287.975693	1.502181 
0.013300	 627.079165	 211.046628	77.061209	288.107837	1.502170 
0.013400	 626.863145	 210.973926	77.206611	288.180537	1.502245 
0.013500	 626.815565	 210.957913	77.238634	288.196547	1.502401 
0.013600	 626.928212	 210.995824	77.162807	288.158632	1.502629 
0.013700	 627.192915	 211.084911	76.984630	288.069541	1.502925 
0.013800	 627.601604	 211.222458	76.709534	287.931992	1.503283 
0.013900	 628.146359	 211.405798	76.342851	287.748649	1.503698 
0.014000	 628.819451	 211.632330	75.889783	287.522114	1.504169 
0.014100	 629.613382	 211.899532	75.355377	287.254909	1.504690 
0.014200	 630.520915	 212.204967	74.744505	286.949472	1.505260 
0.014300	 631.535094	 212.546294	74.061849	286.608142	1.505877 
0.014400	 632.649267	 212.921274	73.311886	286.233160	1.506540 
0.014500	 633.857093	 213.327774	72.498884	285.826658	1.507247 
0.014600	 635.152553	 213.763768	71.626895	285.390662	1.507999 
0.014700	 636.529952	 214.227338	70.699752	284.927090	1.508795 
0.014800	 637.983913	 214.716676	69.721075	284.437750	1.509635 
0.014900	 639.509379	 215.230079	68.694267	283.924346	1.510520 
0.015000	 641.101597	 215.765948	67.622527	283.388475	1.511450 
0.015100	 642.756115	 216.322784	66.508854	282.831638	1.512426 
0.015200	 644.468761	 216.899184	65.356054	282.255237	1.513450 
0.015300	 646.235634	 217.493834	64.166753	281.660586	1.514522 
0.015400	 648.053086	 218.105506	62.943407	281.048913	1.515645 
0.015500	 649.917705	 218.733053	61.688312	280.421365	1.516820 
0.015600	 651.826300	 219.375400	60.403617	279.779017	1.518050 
0.015700	 653.775880	 220.031541	59.091335	279.122876	1.519338 
0.015800	 655.763640	 220.700532	57.753353	278.453885	1.520686 
0.015900	 657.786942	 221.381484	56.391448	277.772932	1.522098 
0.016000	 659.843299	 222.073562	55.007292	277.080854	1.523577 
0.016100	 661.930361	 222.775973	53.602470	276.378443	1.525130 
0.016200	 664.045897	 223.487967	52.178481	275.666448	1.526761 
0.016300	 666.187783	 224.208829	50.736756	274.945585	1.528475 
0.016400	 668.353988	 224.937876	49.278661	274.216538	1.530278 
0.016500	 670.542564	 225.674453	47.805509	273.479961	1.532175 
0.016600	 672.751633	 226.417926	46.318562	272.736488	1.534171 
0.016700	 674.979378	 227.167685	44.819044	271.986729	1.536268 
0.016800	 677.224035	 227.923135	43.308143	271.231278	1.538467 
0.016900	 679.483884	 228.683699	41.787016	270.470714	1.540767 
0.017000	 681.757245	 229.448810	40.256794	269.705603	1.543163 
0.017100	 684.042470	 230.217914	38.718586	268.936499	1.545648 
0.017200	 686.337940	 230.990465	37.173481	268.163947	1.548214 
0.017300	 688.642061	 231.765929	35.622554	267.388483	1.550851 
0.017400	 690.953261	 232.543775	34.066862	266.610637	1.553549 
0.017500	 693.269989	 233.323481	32.507450	265.830931	1.556298 
0.017600	 695.590711	 234.104532	30.945348	265.049880	1.559089 
0.017700	 697.913913	 234.886417	29.381577	264.267994	1.561912 
0.017800	 700.238100	 235.668634	27.817144	263.485777	1.564761 
0.017900	 702.561794	 236.450685	26.253042	262.703727	1.567628 
0.018000	 704.883536	 237.232078	24.690254	261.922332	1.570508 
0.018100	 707.201889	 238.012332	23.129747	261.142079	1.573394 
0.018200	 709.515437	 238.790968	21.572475	260.363442	1.576283 
0.018300	 711.822789	 239.567519	20.019373	259.586892	1.579170 
0.018400	 714.122578	 240.341524	18.471362	258.812886	1.582052 
0.018500	 716.413465	 241.112534	16.929343	258.041876	1.584925 
0.018600	 718.694141	 241.880106	15.394197	257.274303	1.587788 
0.018700	 720.963328	 242.643813	13.866784	256.510597	1.590637 
0.018800	 723.219783	 243.403234	12.347941	255.751175	1.593470 
0.018900	 725.462298	 244.157964	10.838481	254.996445	1.596286 
0.019000	 727.689703	 244.907608	9.339193	254.246801	1.599082 
0.019100	 729.900868	 245.651787	7.850836	253.502622	1.601858 
0.019200	 732.094703	 246.390133	6.374143	252.764276	1.604611 
0.019300	 734.270162	 247.122294	4.909820	252.032114	1.607340 
0.019400	 736.426246	 247.847935	3.458538	251.306473	1.610045 
0.019500	 738.561999	 248.566733	2.020942	250.587675	1.612724 
0.019600	 740.676512	 249.278384	0.597641	249.876025	1.615377 
0.019700	 742.768928	 249.982596	-0.810785	249.171812	1.618002 
0.019800	 744.838434	 250.679099	-2.203790	248.475309	1.620600 
0.019900	 746.884272	 251.367636	-3.580864	247.786772	1.623168 
0.020000	 748.905730	 252.047968	-4.941528	247.106440	1.625708 
0.020100	 750.902150	 252.719873	-6.285338	246.434535	1.628217 
0.020200	 752.872923	 253.383147	-7.611885	245.771261	1.630697 
0.020300	 754.817492	 254.037601	-8.920794	245.116807	1.633146 
0.020400	 756.735351	 254.683066	-10.211724	244.471342	1.635565 
0.020500	 758.626045	 255.319389	-11.484369	243.835020	1.637952 
0.020600	 760.489170	 255.946432	-12.738456	243.207976	1.640309 
0.020700	 762.324370	 256.564078	-13.973748	242.590330	1.642635 
0.020800	 764.131341	 257.172224	-15.190038	241.982185	1.644929 
0.020900	 765.909829	 257.770782	-16.387156	241.383626	1.647192 
0.021000	 767.659626	 258.359685	-17.564962	240.794724	1.649424 
0.021100	 769.380572	 258.938878	-18.723348	240.215531	1.651624 
0.021200	 771.072557	 259.508324	-19.862239	239.646085	1.653793 
0.021300	 772.735513	 260.068000	-20.981591	239.086409	1.655931 
0.021400	 774.369419	 260.617900	-22.081390	238.536510	1.658038 
0.021500	 775.974300	 261.158031	-23.161651	237.996379	1.660114 
0.021600	 777.550221	 261.688415	-24.222419	237.465996	1.662160 
0.021700	 779.097292	 262.209089	-25.263767	236.945322	1.664175 
0.021800	 780.615661	 262.720104	-26.285797	236.434307	1.666159 
0.021900	 782.105521	 263.221523	-27.288636	235.932888	1.668114 
0.022000	 783.567098	 263.713425	-28.272438	235.440987	1.670038 
0.022100	 785.000661	 264.195898	-29.237383	234.958514	1.671934 
0.022200	 786.406514	 264.669044	-30.183676	234.485368	1.673800 
0.022300	 787.784995	 265.132979	-31.111546	234.021433	1.675637 
0.022400	 789.136480	 265.587828	-32.021243	233.566585	1.677446 
0.022500	 790.461375	 266.033728	-32.913043	233.120685	1.679227 
0.022600	 791.760120	 266.470827	-33.787241	232.683586	1.680980 
0.022700	 793.033186	 266.899284	-34.644154	232.255130	1.682706 
0.022800	 794.281074	 267.319267	-35.484119	231.835147	1.684406 
0.022900	 795.504312	 267.730954	-36.307493	231.423461	1.686081 
0.023000	 796.703458	 268.134532	-37.114650	231.019883	1.687730 
0.023100	 797.879094	 268.530198	-37.905982	230.624217	1.689354 
0.023200	 799.031828	 268.918157	-38.681898	230.236259	1.690955 
0.023300	 800.162292	 269.298620	-39.442824	229.855796	1.692532 
0.023400	 801.271138	 269.671808	-40.189199	229.482609	1.694088 
0.023500	 802.359043	 270.037948	-40.921479	229.116469	1.695621 
0.023600	 803.426701	 270.397273	-41.640129	228.757144	1.697134 
0.023700	 804.474824	 270.750024	-42.345630	228.404394	1.698627 
0.023800	 805.504142	 271.096446	-43.038474	228.057972	1.700101 
0.023900	 806.515400	 271.436790	-43.719162	227.717629	1.701557 
0.024000	 807.509358	 271.771312	-44.388205	227.383107	1.702996 
0.024100	 808.486788	 272.100271	-45.046122	227.054149	1.704419 
0.024200	 809.448472	 272.423931	-45.693441	226.730490	1.705826 
0.024300	 810.395204	 272.742558	-46.330695	226.411863	1.707219 
0.024400	 811.327783	 273.056422	-46.958423	226.097999	1.708598 
0.024500	 812.247016	 273.365795	-47.577168	225.788627	1.709965 
0.024600	 813.153716	 273.670949	-48.187475	225.483473	1.711321 
0.024700	 814.048696	 273.972159	-48.789895	225.182264	1.712666 
0.024800	 814.932772	 274.269699	-49.384975	224.884724	1.714001 
0.024900	 815.806761	 274.563844	-49.973265	224.590579	1.715328 
0.025000	 816.671476	 274.854869	-50.555313	224.299555	1.716647 
0.025100	 817.527728	 275.143044	-51.131664	224.011380	1.717959 
0.025200	 818.376321	 275.428643	-51.702861	223.725782	1.719265 
0.025300	 819.218054	 275.711932	-52.269439	223.442493	1.720566 
0.025400	 820.053716	 275.993178	-52.831931	223.161248	1.721863 
0.025500	 820.884084	 276.272643	-53.390860	222.881783	1.723156 
0.025600	 821.709926	 276.550584	-53.946742	222.603842	1.724447 
0.025700	 822.531995	 276.827255	-54.500084	222.327172	1.725736 
0.025800	 823.351026	 277.102905	-55.051382	222.051523	1.727024 
0.025900	 824.167741	 277.377774	-55.601120	221.776654	1.728311 
0.026000	 824.982841	 277.652100	-56.149772	221.502328	1.729598 
0.026100	 825.797007	 277.926112	-56.697794	221.228317	1.730887 
0.026200	 826.610898	 278.200031	-57.245632	220.954399	1.732176 
0.026300	 827.425150	 278.474071	-57.793713	220.680358	1.733468 
0.026400	 828.240376	 278.748440	-58.342450	220.405990	1.734763 
0.026500	 829.057162	 279.023333	-58.892236	220.131097	1.736060 
0.026600	 829.876068	 279.298940	-59.443450	219.855490	1.737361 
0.026700	 830.697624	 279.575439	-59.996447	219.578992	1.738666 
0.026800	 831.522332	 279.852998	-60.551566	219.301433	1.739975 
0.026900	 832.350665	 280.131778	-61.109125	219.022653	1.741288 
0.027000	 833.183065	 280.411926	-61.669421	218.742505	1.742607 
0.027100	 834.019940	 280.693581	-62.232730	218.460851	1.743930 
0.027200	 834.861669	 280.976869	-62.799306	218.177563	1.745259 
0.027300	 835.708596	 281.261906	-63.369381	217.892526	1.746594 
0.027400	 836.561033	 281.548798	-63.943164	217.605634	1.747934 
0.027500	 837.419258	 281.837638	-64.520844	217.316794	1.749279 
0.027600	 838.283517	 282.128509	-65.102585	217.025924	1.750631 
0.027700	 839.154019	 282.421481	-65.688529	216.732952	1.751988 
0.027800	 840.030944	 282.716614	-66.278795	216.437819	1.753351 
0.027900	 840.914434	 283.013957	-66.873481	216.140476	1.754720 
0.028000	 841.804601	 283.313548	-67.472662	215.840886	1.756094 
0.028100	 842.701524	 283.615411	-68.076389	215.539022	1.757474 
0.028200	 843.605247	 283.919564	-68.684695	215.234869	1.758859 
0.028300	 844.515787	 284.226011	-69.297588	214.928423	1.760249 
0.028400	 845.433126	 284.534746	-69.915058	214.619688	1.761645 
0.028500	 846.357218	 284.845754	-70.537074	214.308680	1.763045 
0.028600	 847.287988	 285.159009	-71.163584	213.995425	1.764449 
0.028700	 848.225330	 285.474476	-71.794518	213.679958	1.765858 
0.028800	 849.169114	 285.792111	-72.429789	213.362322	1.767270 
0.028900	 850.119183	 286.111862	-73.069290	213.042572	1.768686 
0.029000	 851.075354	 286.433666	-73.712898	212.720768	1.770105 
0.029100	 852.037421	 286.757454	-74.360475	212.396979	1.771526 
0.029200	 853.005156	 287.083150	-75.011867	212.071284	1.772950 
0.029300	 853.978308	 287.410669	-75.666905	211.743764	1.774376 
0.029400	 854.956607	 287.739921	-76.325408	211.414513	1.775804 
0.029500	 855.939767	 288.070808	-76.987183	211.083625	1.777232 
0.029600	 856.927480	 288.403228	-77.652023	210.751205	1.778661 
0.029700	 857.919427	 288.737073	-78.319712	210.417361	1.780091 
